# CREATED BY GENE DIAGNOSTICS TOOL on Fri Nov  2 11:34:58 2018
# diag: spectra, run(s): act, time window: 0-61.692025(638 steps), species: ions
# normalization: R_0
#
# kxind = 0
#  ky         phi       
  0.0000E+00  0.0000E+00
  5.0000E-02  3.5379E+01
  1.0000E-01  1.3822E+01
  1.5000E-01  9.2609E+00
  2.0000E-01  6.5305E+00
  2.5000E-01  5.1599E+00
  3.0000E-01  3.9199E+00
  3.5000E-01  3.0470E+00
  4.0000E-01  2.0801E+00
  4.5000E-01  1.3073E+00
  5.0000E-01  1.0173E+00
  5.5000E-01  7.5519E-01
  6.0000E-01  5.8145E-01
  6.5000E-01  4.5499E-01
  7.0000E-01  3.6797E-01
  7.5000E-01  2.8446E-01
  8.0000E-01  2.2820E-01
  8.5000E-01  1.7448E-01
  9.0000E-01  1.4075E-01
  9.5000E-01  1.1007E-01
  1.0000E+00  8.5561E-02
  1.0500E+00  6.6791E-02
  1.1000E+00  5.2211E-02
  1.1500E+00  4.1320E-02
  1.2000E+00  3.2617E-02
  1.2500E+00  2.6329E-02
  1.3000E+00  2.0938E-02
  1.3500E+00  1.6585E-02
  1.4000E+00  1.3240E-02
  1.4500E+00  1.0925E-02
  1.5000E+00  8.8030E-03
  1.5500E+00  7.2530E-03
  1.6000E+00  5.8903E-03
  1.6500E+00  4.9221E-03
  1.7000E+00  4.0376E-03
  1.7500E+00  3.4064E-03
  1.8000E+00  2.8366E-03
  1.8500E+00  2.3954E-03
  1.9000E+00  2.0435E-03
  1.9500E+00  1.7304E-03
  2.0000E+00  1.4828E-03
  2.0500E+00  1.3014E-03
  2.1000E+00  1.1268E-03
  2.1500E+00  9.9439E-04
  2.2000E+00  8.7385E-04
  2.2500E+00  7.7147E-04
  2.3000E+00  7.0304E-04
  2.3500E+00  6.2906E-04
  2.4000E+00  5.8290E-04
  2.4500E+00  5.2448E-04
  2.5000E+00  4.8106E-04
  2.5500E+00  4.4731E-04
  2.6000E+00  4.1291E-04
  2.6500E+00  3.8783E-04
  2.7000E+00  3.6301E-04
  2.7500E+00  3.4015E-04
  2.8000E+00  3.1948E-04
  2.8500E+00  3.0488E-04
  2.9000E+00  2.8665E-04
  2.9500E+00  2.7712E-04
  3.0000E+00  2.6431E-04
  3.0500E+00  2.5143E-04
  3.1000E+00  2.4235E-04
  3.1500E+00  2.3881E-04


# kyind = 0
#  kx         phi       
  0.0000E+00  0.0000E+00
  4.9009E-02  5.4315E+03
  9.8018E-02  7.1120E+02
  1.4703E-01  2.3800E+02
  1.9604E-01  2.0302E+02
  2.4504E-01  1.3163E+02
  2.9405E-01  1.1521E+02
  3.4306E-01  1.2248E+02
  3.9207E-01  1.1896E+02
  4.4108E-01  1.4141E+02
  4.9009E-01  9.9358E+01
  5.3910E-01  4.9760E+01
  5.8811E-01  1.9851E+01
  6.3712E-01  2.0678E+01
  6.8612E-01  1.2183E+01
  7.3513E-01  6.7253E+00
  7.8414E-01  6.5742E+00
  8.3315E-01  4.4015E+00
  8.8216E-01  3.8503E+00
  9.3117E-01  3.3015E+00
  9.8018E-01  2.7614E+00
  1.0292E+00  1.7774E+00
  1.0782E+00  2.0000E+00
  1.1272E+00  1.4806E+00
  1.1762E+00  1.1732E+00
  1.2252E+00  8.6678E-01
  1.2742E+00  8.4475E-01
  1.3232E+00  6.4101E-01
  1.3722E+00  5.7125E-01
  1.4213E+00  4.1669E-01
  1.4703E+00  3.2994E-01
  1.5193E+00  2.5293E-01
  1.5683E+00  1.7531E-01
  1.6173E+00  1.3100E-01
  1.6663E+00  1.0649E-01
  1.7153E+00  8.5042E-02
  1.7643E+00  6.6860E-02
  1.8133E+00  5.2501E-02
  1.8623E+00  4.3483E-02
  1.9113E+00  3.2780E-02
  1.9604E+00  2.8208E-02
  2.0094E+00  2.2344E-02
  2.0584E+00  1.7958E-02
  2.1074E+00  1.5213E-02
  2.1564E+00  1.2750E-02
  2.2054E+00  1.0166E-02
  2.2544E+00  8.6932E-03
  2.3034E+00  7.2583E-03
  2.3524E+00  6.0729E-03
  2.4014E+00  5.2729E-03
  2.4504E+00  4.3397E-03
  2.4995E+00  3.7788E-03
  2.5485E+00  3.2752E-03
  2.5975E+00  2.8144E-03
  2.6465E+00  2.4167E-03
  2.6955E+00  2.1157E-03
  2.7445E+00  1.8563E-03
  2.7935E+00  1.6740E-03
  2.8425E+00  1.4616E-03
  2.8915E+00  1.3078E-03
  2.9405E+00  1.1763E-03
  2.9895E+00  1.0537E-03
  3.0386E+00  9.6194E-04
  3.0876E+00  8.7340E-04
  3.1366E+00  7.9628E-04
  3.1856E+00  7.3612E-04
  3.2346E+00  6.8234E-04
  3.2836E+00  6.2686E-04
  3.3326E+00  5.8876E-04
  3.3816E+00  5.4667E-04
  3.4306E+00  5.1749E-04
  3.4796E+00  4.8746E-04
  3.5286E+00  4.6026E-04
  3.5776E+00  4.3520E-04
  3.6267E+00  4.1472E-04
  3.6757E+00  3.9612E-04
  3.7247E+00  3.7667E-04
  3.7737E+00  3.6405E-04
  3.8227E+00  3.4793E-04
  3.8717E+00  3.3471E-04
  3.9207E+00  3.2113E-04
  3.9697E+00  3.0972E-04
  4.0187E+00  2.9870E-04
  4.0677E+00  2.8985E-04
  4.1167E+00  2.7887E-04
  4.1658E+00  2.7273E-04
  4.2148E+00  2.6336E-04
  4.2638E+00  2.5385E-04
  4.3128E+00  2.4863E-04
  4.3618E+00  2.4203E-04
  4.4108E+00  2.3409E-04
  4.4598E+00  2.2808E-04
  4.5088E+00  2.2274E-04
  4.5578E+00  2.1474E-04
  4.6068E+00  2.1080E-04
  4.6558E+00  2.0494E-04
  4.7049E+00  1.9912E-04
  4.7539E+00  1.9517E-04
  4.8029E+00  1.8968E-04
  4.8519E+00  1.8482E-04
  4.9009E+00  1.8129E-04
  4.9499E+00  1.7728E-04
  4.9989E+00  1.7373E-04
  5.0479E+00  1.7066E-04
  5.0969E+00  1.6630E-04
  5.1459E+00  1.6183E-04
  5.1949E+00  1.5919E-04
  5.2440E+00  1.5484E-04
  5.2930E+00  1.5225E-04
  5.3420E+00  1.4853E-04
  5.3910E+00  1.4688E-04
  5.4400E+00  1.4309E-04
  5.4890E+00  1.4052E-04
  5.5380E+00  1.3715E-04
  5.5870E+00  1.3443E-04
  5.6360E+00  1.3267E-04
  5.6850E+00  1.3036E-04
  5.7340E+00  1.2732E-04
  5.7830E+00  1.2464E-04
  5.8321E+00  1.2356E-04
  5.8811E+00  1.2059E-04
  5.9301E+00  1.1825E-04
  5.9791E+00  1.1667E-04
  6.0281E+00  1.1521E-04
  6.0771E+00  1.1278E-04
  6.1261E+00  1.1052E-04
  6.1751E+00  1.0947E-04
  6.2241E+00  1.0729E-04
  6.2731E+00  1.0559E-04
  6.3221E+00  1.0346E-04
  6.3712E+00  1.0208E-04
  6.4202E+00  1.0102E-04
  6.4692E+00  9.9449E-05
  6.5182E+00  9.7123E-05
  6.5672E+00  9.5656E-05
  6.6162E+00  9.4648E-05
  6.6652E+00  9.2771E-05
  6.7142E+00  9.1396E-05
  6.7632E+00  9.0609E-05
  6.8122E+00  8.8795E-05
  6.8612E+00  8.7917E-05
  6.9103E+00  8.6138E-05
  6.9593E+00  8.5387E-05
  7.0083E+00  8.4302E-05
  7.0573E+00  8.3273E-05
  7.1063E+00  8.1560E-05
  7.1553E+00  8.0265E-05
  7.2043E+00  7.9908E-05
  7.2533E+00  7.7808E-05
  7.3023E+00  7.7764E-05
  7.3513E+00  7.6790E-05
  7.4003E+00  7.5807E-05
  7.4494E+00  7.4199E-05
  7.4984E+00  7.3834E-05
  7.5474E+00  7.2867E-05
  7.5964E+00  7.1347E-05
  7.6454E+00  7.0862E-05
  7.6944E+00  6.9918E-05
  7.7434E+00  6.8466E-05
  7.7924E+00  6.8415E-05
  7.8414E+00  6.6984E-05
  7.8904E+00  6.7042E-05
  7.9394E+00  6.5908E-05
  7.9884E+00  6.5125E-05
  8.0375E+00  6.4206E-05
  8.0865E+00  6.3214E-05
  8.1355E+00  6.2349E-05
  8.1845E+00  6.2298E-05
  8.2335E+00  6.1682E-05
  8.2825E+00  6.0694E-05
  8.3315E+00  6.0280E-05
  8.3805E+00  5.9569E-05
  8.4295E+00  5.8648E-05
  8.4785E+00  5.8394E-05
  8.5275E+00  5.7479E-05
  8.5766E+00  5.6967E-05
  8.6256E+00  5.6495E-05
  8.6746E+00  5.6143E-05
  8.7236E+00  5.5039E-05
  8.7726E+00  5.4450E-05
  8.8216E+00  5.3838E-05
  8.8706E+00  5.3381E-05
  8.9196E+00  5.3535E-05
  8.9686E+00  5.2749E-05
  9.0176E+00  5.1950E-05
  9.0666E+00  5.1578E-05
  9.1157E+00  5.1262E-05
  9.1647E+00  5.1160E-05
  9.2137E+00  5.1137E-05
  9.2627E+00  5.0491E-05
  9.3117E+00  5.0829E-05
  9.3607E+00  5.0980E-05
